Time,Extension,Load
(sec),(mm),(N)
0.00000,0.00000,-0.00470
0.10000,-0.00173,-0.01636
0.20000,-0.01440,-0.02005
0.30000,-0.02747,-0.01532
0.40000,-0.03853,-0.01991
0.50000,-0.04920,-0.02166
0.60000,-0.05960,-0.01483
0.70000,-0.06973,-0.03047
0.80000,-0.07973,-0.03633
0.90000,-0.09013,-0.02764
1.00000,-0.09973,-0.03415
1.10000,-0.10987,-0.02826
1.20000,-0.12013,-0.04061
1.30000,-0.12987,-0.03481
1.40000,-0.14013,-0.03776
1.50000,-0.15013,-0.04311
1.60000,-0.15973,-0.04549
1.70000,-0.17027,-0.04678
1.80000,-0.18013,-0.05265
1.90000,-0.18987,-0.04610
2.00000,-0.20000,-0.05304
2.10000,-0.20987,-0.04501
2.20000,-0.22000,-0.05593
2.30000,-0.22987,-0.06373
2.40000,-0.23987,-0.07178
2.50000,-0.24987,-0.06289
2.60000,-0.25973,-0.06067
2.70000,-0.27013,-0.06374
2.80000,-0.27987,-0.07038
2.90000,-0.29000,-0.07547
3.00000,-0.30013,-0.07300
3.10000,-0.30973,-0.05946
3.20000,-0.32000,-0.07241
3.30000,-0.33000,-0.08018
3.40000,-0.33960,-0.08336
3.50000,-0.35000,-0.08322
3.60000,-0.35987,-0.07852
3.70000,-0.36987,-0.08107
3.80000,-0.38013,-0.07947
3.90000,-0.39000,-0.07565
4.00000,-0.40000,-0.09006
4.10000,-0.41013,-0.08497
4.20000,-0.42013,-0.09789
4.30000,-0.43000,-0.09464
4.40000,-0.44000,-0.09759
4.50000,-0.45013,-0.10091
4.60000,-0.45987,-0.09298
4.70000,-0.47000,-0.09768
4.80000,-0.47987,-0.10514
4.90000,-0.48960,-0.10227
5.00000,-0.50013,-0.10426
5.10000,-0.50987,-0.10397
5.20000,-0.51987,-0.11246
5.30000,-0.53013,-0.11010
5.40000,-0.53987,-0.11376
5.50000,-0.55013,-0.10292
5.60000,-0.56027,-0.11146
5.70000,-0.57000,-0.10657
5.80000,-0.58000,-0.11711
5.90000,-0.59013,-0.11435
6.00000,-0.60013,-0.12109
6.10000,-0.60987,-0.11639
6.20000,-0.62027,-0.12626
6.30000,-0.62987,-0.12939
6.40000,-0.63960,-0.13495
6.50000,-0.65027,-0.13019
6.60000,-0.65987,-0.12558
6.70000,-0.66987,-0.13641
6.80000,-0.68013,-0.14050
6.90000,-0.68986,-0.13370
7.00000,-0.70000,-0.14005
7.10000,-0.71013,-0.13345
7.20000,-0.71986,-0.14239
7.30000,-0.73000,-0.13749
7.40000,-0.74000,-0.14360
7.50000,-0.75000,-0.14264
7.60000,-0.76000,-0.14152
7.70000,-0.76973,-0.14862
7.80000,-0.78000,-0.14600
7.90000,-0.78986,-0.14738
8.00000,-0.80000,-0.16091
8.10000,-0.81000,-0.15312
8.20000,-0.81973,-0.16258
8.30000,-0.83026,-0.15960
8.40000,-0.84000,-0.16454
8.50000,-0.85000,-0.16435
8.60000,-0.86013,-0.16931
8.70000,-0.86973,-0.17045
8.80000,-0.88000,-0.17413
8.90000,-0.89000,-0.17353
9.00000,-0.89986,-0.18222
9.10000,-0.90986,-0.17594
9.20000,-0.92000,-0.18499
9.30000,-0.93000,-0.17784
9.40000,-0.94000,-0.18713
9.50000,-0.95013,-0.18776
9.60000,-0.96000,-0.19258
9.70000,-0.97000,-0.19940
9.80000,-0.98026,-0.20553
9.90000,-0.99000,-0.20452
10.00000,-0.99973,-0.21965
10.10000,-1.01000,-0.21085
10.20000,-1.01973,-0.21486
10.30000,-1.03000,-0.22283
10.40000,-1.04000,-0.22484
10.50000,-1.04973,-0.22602
10.60000,-1.06013,-0.22511
10.70000,-1.07013,-0.23721
10.80000,-1.08000,-0.23640
10.90000,-1.09013,-0.23741
11.00000,-1.10000,-0.24309
11.10000,-1.11000,-0.24281
11.20000,-1.12013,-0.24751
11.30000,-1.13013,-0.25471
11.40000,-1.13986,-0.26111
11.50000,-1.14986,-0.26554
11.60000,-1.16000,-0.26409
11.70000,-1.16973,-0.27651
11.80000,-1.18000,-0.27766
11.90000,-1.19000,-0.28045
12.00000,-1.19960,-0.28842
12.10000,-1.21013,-0.28054
12.20000,-1.22000,-0.28910
12.30000,-1.23000,-0.29602
12.40000,-1.24000,-0.29676
12.50000,-1.24986,-0.29523
12.60000,-1.26000,-0.29489
12.70000,-1.26986,-0.30323
12.80000,-1.27986,-0.30939
12.90000,-1.28986,-0.30956
13.00000,-1.29973,-0.31774
13.10000,-1.30986,-0.31471
13.20000,-1.31986,-0.32215
13.30000,-1.33000,-0.32426
13.40000,-1.34013,-0.33703
13.50000,-1.34986,-0.33717
13.60000,-1.36013,-0.33958
13.70000,-1.37013,-0.35174
13.80000,-1.37986,-0.35461
13.90000,-1.39026,-0.35064
14.00000,-1.39986,-0.35492
14.10000,-1.40986,-0.35161
14.20000,-1.42013,-0.36515
14.30000,-1.42973,-0.36410
14.40000,-1.44000,-0.37040
14.50000,-1.45013,-0.37547
14.60000,-1.46000,-0.37453
14.70000,-1.47000,-0.38158
14.80000,-1.48000,-0.38232
14.90000,-1.49000,-0.39166
15.00000,-1.50000,-0.38791
15.10000,-1.51026,-0.38703
15.20000,-1.52000,-0.39973
15.30000,-1.52973,-0.39513
15.40000,-1.54026,-0.39446
15.50000,-1.54986,-0.39662
15.60000,-1.55986,-0.39290
15.70000,-1.57013,-0.38281
15.80000,-1.57960,-0.37914
15.90000,-1.59000,-0.37607
16.00000,-1.60013,-0.36738
16.10000,-1.61000,-0.35945
16.20000,-1.62000,-0.37263
16.30000,-1.63013,-0.36995
16.40000,-1.64000,-0.38143
16.50000,-1.65000,-0.37533
16.60000,-1.66013,-0.38405
16.70000,-1.66986,-0.39008
16.80000,-1.67973,-0.40323
16.90000,-1.69013,-0.39825
17.00000,-1.69986,-0.40584
17.10000,-1.70973,-0.40650
17.20000,-1.72013,-0.43023
17.30000,-1.72986,-0.43497
17.40000,-1.74013,-0.44570
17.50000,-1.75013,-0.44242
17.60000,-1.75973,-0.44587
17.70000,-1.77013,-0.45499
17.80000,-1.78013,-0.47479
17.90000,-1.79013,-0.47600
18.00000,-1.80000,-0.47656
18.10000,-1.80986,-0.47689
18.20000,-1.82000,-0.47971
18.30000,-1.82973,-0.48155
18.40000,-1.83973,-0.49695
18.50000,-1.84986,-0.49971
18.60000,-1.85960,-0.49076
18.70000,-1.87013,-0.50695
18.80000,-1.87986,-0.51153
18.90000,-1.89013,-0.51709
19.00000,-1.90013,-0.53244
19.10000,-1.90960,-0.53072
19.20000,-1.92000,-0.54578
19.30000,-1.93000,-0.55354
19.40000,-1.93986,-0.56762
19.50000,-1.95000,-0.57448
19.60000,-1.95986,-0.58192
19.70000,-1.96986,-0.59432
19.80000,-1.98000,-0.60440
19.90000,-1.99000,-0.61399
20.00000,-2.00013,-0.63213
20.10000,-2.01013,-0.63883
20.20000,-2.02013,-0.65742
20.30000,-2.03000,-0.65609
20.40000,-2.04013,-0.67227
20.50000,-2.05013,-0.68638
20.60000,-2.05986,-0.69203
20.70000,-2.07013,-0.70328
20.80000,-2.08013,-0.71859
20.90000,-2.08959,-0.72135
21.00000,-2.09999,-0.72650
21.10000,-2.10986,-0.73453
21.20000,-2.11986,-0.75787
21.30000,-2.13013,-0.77319
21.40000,-2.13999,-0.79268
21.50000,-2.15013,-0.80656
21.60000,-2.16013,-0.81805
21.70000,-2.17013,-0.84091
21.80000,-2.18013,-0.85670
21.90000,-2.18986,-0.86392
22.00000,-2.20013,-0.87256
22.10000,-2.20986,-0.88736
22.20000,-2.22013,-0.90781
22.30000,-2.22986,-0.92248
22.40000,-2.23959,-0.94280
22.50000,-2.25013,-0.95089
22.60000,-2.25986,-0.96456
22.70000,-2.26986,-0.99367
22.80000,-2.28013,-1.01037
22.90000,-2.28999,-1.01676
23.00000,-2.30013,-1.02774
23.10000,-2.31013,-1.03827
23.20000,-2.31973,-1.05289
23.30000,-2.32999,-1.06126
23.40000,-2.33986,-1.08132
23.50000,-2.34973,-1.10646
23.60000,-2.35986,-1.11671
23.70000,-2.36973,-1.13237
23.80000,-2.37999,-1.15015
23.90000,-2.38986,-1.16312
24.00000,-2.40013,-1.18133
24.10000,-2.40999,-1.17876
24.20000,-2.41986,-1.20043
24.30000,-2.43026,-1.21474
24.40000,-2.43986,-1.22582
24.50000,-2.44999,-1.23960
24.60000,-2.46013,-1.25660
24.70000,-2.46959,-1.27505
24.80000,-2.47999,-1.29527
24.90000,-2.48986,-1.31047
25.00000,-2.49973,-1.32970
25.10000,-2.50986,-1.33739
25.20000,-2.51973,-1.36352
25.30000,-2.52986,-1.37547
25.40000,-2.53999,-1.41432
25.50000,-2.55026,-1.43251
25.60000,-2.56013,-1.44959
25.70000,-2.57013,-1.47907
25.80000,-2.58013,-1.50305
25.90000,-2.58986,-1.52013
26.00000,-2.59999,-1.53989
26.10000,-2.60999,-1.54156
26.20000,-2.61973,-1.56943
26.30000,-2.62999,-1.59248
26.40000,-2.63999,-1.62849
26.50000,-2.64973,-1.65625
26.60000,-2.66026,-1.68293
26.70000,-2.66999,-1.72052
26.80000,-2.67999,-1.73950
26.90000,-2.69026,-1.78220
27.00000,-2.69999,-1.80863
27.10000,-2.71013,-1.82022
27.20000,-2.71999,-1.84587
27.30000,-2.72999,-1.86518
27.40000,-2.73986,-1.89083
27.50000,-2.74986,-1.91100
27.60000,-2.76013,-1.93982
27.70000,-2.76986,-1.96969
27.80000,-2.78013,-1.99646
27.90000,-2.78986,-2.02241
28.00000,-2.79973,-2.04695
28.10000,-2.81026,-2.06191
28.20000,-2.81986,-2.07707
28.30000,-2.82999,-2.08955
28.40000,-2.84013,-2.11210
28.50000,-2.84986,-2.13545
28.60000,-2.85999,-2.16813
28.70000,-2.86999,-2.19697
28.80000,-2.87986,-2.22117
28.90000,-2.88986,-2.23868
29.00000,-2.89973,-2.26822
29.10000,-2.90973,-2.28590
29.20000,-2.91973,-2.32471
29.30000,-2.92986,-2.35730
29.40000,-2.93999,-2.40600
29.50000,-2.94973,-2.42103
29.60000,-2.96013,-2.44335
29.70000,-2.96999,-2.49326
29.80000,-2.97986,-2.51760
29.90000,-2.99026,-2.53549
30.00000,-2.99986,-2.56603
30.10000,-3.00986,-2.59475
30.20000,-3.02013,-2.63812
30.30000,-3.02959,-2.66966
30.40000,-3.03999,-2.70628
30.50000,-3.05013,-2.72619
30.60000,-3.05999,-2.74892
30.70000,-3.06999,-2.77966
30.80000,-3.07999,-2.81473
30.90000,-3.09013,-2.84279
31.00000,-3.09999,-2.88944
31.10000,-3.11026,-2.91822
31.20000,-3.11986,-2.96930
31.30000,-3.12973,-3.00692
31.40000,-3.14026,-3.05405
31.50000,-3.14986,-3.08432
31.60000,-3.15999,-3.11834
31.70000,-3.17013,-3.15262
31.80000,-3.17973,-3.17810
31.90000,-3.18999,-3.19815
32.00000,-3.19999,-3.21478
32.10000,-3.20986,-3.23793
32.20000,-3.21999,-3.28154
32.30000,-3.22999,-3.31639
32.40000,-3.24013,-3.35157
32.50000,-3.25013,-3.36334
32.60000,-3.26013,-3.38557
32.70000,-3.26999,-3.39438
32.80000,-3.27986,-3.40893
32.90000,-3.29013,-3.42270
33.00000,-3.29986,-3.42565
33.10000,-3.30986,-3.43767
33.20000,-3.32013,-3.46098
33.30000,-3.32986,-3.13370
33.40000,-3.34013,-3.20235
33.50000,-3.35013,-3.27261
33.60000,-3.35973,-3.31099
33.70000,-3.37026,-3.37357
33.80000,-3.38013,-3.41805
33.90000,-3.38986,-3.44428
34.00000,-3.39986,-3.48017
34.10000,-3.40959,-3.51448
34.20000,-3.41986,-3.55148
34.30000,-3.42986,-3.58661
34.40000,-3.43986,-3.63343
34.50000,-3.44986,-3.67810
34.60000,-3.45972,-3.71257
34.70000,-3.47012,-3.75577
34.80000,-3.47986,-3.80219
34.90000,-3.48999,-3.84167
35.00000,-3.49999,-3.88632
35.10000,-3.50972,-3.91039
35.20000,-3.52012,-3.95906
35.30000,-3.52999,-3.99612
35.40000,-3.53972,-4.04182
35.50000,-3.55012,-4.07915
35.60000,-3.55972,-4.11836
35.70000,-3.56972,-4.17275
35.80000,-3.57999,-4.21234
35.90000,-3.58986,-4.23386
36.00000,-3.59999,-4.27513
36.10000,-3.61012,-4.30659
36.20000,-3.62012,-4.34962
36.30000,-3.63012,-4.38867
36.40000,-3.64012,-4.41850
36.50000,-3.65012,-4.47089
36.60000,-3.65972,-4.49559
36.70000,-3.67012,-4.53551
36.80000,-3.67999,-4.57097
36.90000,-3.68972,-4.60002
37.00000,-3.70026,-4.63584
37.10000,-3.70986,-4.66659
37.20000,-3.71986,-4.71819
37.30000,-3.73012,-4.76447
37.40000,-3.73986,-4.79486
37.50000,-3.75012,-4.84160
37.60000,-3.76026,-4.88273
37.70000,-3.77012,-4.92531
37.80000,-3.77999,-4.97093
37.90000,-3.78999,-5.01094
38.00000,-3.79999,-5.06220
38.10000,-3.80986,-5.08884
38.20000,-3.82012,-5.14331
38.30000,-3.82986,-5.14607
38.40000,-3.83959,-5.15364
38.50000,-3.85026,-5.19737
38.60000,-3.85986,-5.20871
38.70000,-3.86986,-5.24795
38.80000,-3.88026,-5.27599
38.90000,-3.88999,-5.30463
39.00000,-3.89999,-5.33543
39.10000,-3.91012,-5.30610
39.20000,-3.91986,-5.35035
39.30000,-3.92999,-5.36993
39.40000,-3.93999,-5.39717
39.50000,-3.94986,-5.42416
39.60000,-3.95986,-5.45680
39.70000,-3.96972,-5.48346
39.80000,-3.97986,-5.45974
39.90000,-3.98986,-5.50341
40.00000,-4.00012,-5.54362
40.10000,-4.00999,-5.57179
40.20000,-4.01986,-5.60175
40.30000,-4.03026,-5.54709
40.40000,-4.03986,-5.57334
40.50000,-4.05012,-5.59100
40.60000,-4.06012,-5.61317
40.70000,-4.06959,-5.63062
40.80000,-4.07999,-5.64664
40.90000,-4.09012,-5.66487
41.00000,-4.09986,-5.68560
41.10000,-4.10986,-5.71058
41.20000,-4.11972,-5.75156
41.30000,-4.12999,-5.77622
41.40000,-4.14012,-5.80220
41.50000,-4.14999,-5.83083
41.60000,-4.15999,-5.87123
41.70000,-4.16999,-5.90334
41.80000,-4.18012,-5.93004
41.90000,-4.18999,-5.95306
42.00000,-4.19999,-5.98123
42.10000,-4.20999,-6.00296
42.20000,-4.21972,-6.03944
42.30000,-4.22999,-6.06080
42.40000,-4.23999,-6.09274
42.50000,-4.24972,-6.09381
42.60000,-4.26012,-6.10389
42.70000,-4.26999,-6.13194
42.80000,-4.27986,-6.15305
42.90000,-4.29026,-6.17972
43.00000,-4.29999,-6.20433
43.10000,-4.31012,-6.22695
43.20000,-4.31999,-6.25153
43.30000,-4.32999,-6.28101
43.40000,-4.33986,-6.30381
43.50000,-4.34986,-6.32101
43.60000,-4.36012,-6.32553
43.70000,-4.36972,-6.34304
43.80000,-4.38012,-6.36337
43.90000,-4.38999,-6.37654
44.00000,-4.39972,-6.38301
44.10000,-4.41039,-6.36790
44.20000,-4.41999,-6.38620
44.30000,-4.42999,-6.39721
44.40000,-4.44026,-6.41908
44.50000,-4.44986,-6.43917
44.60000,-4.45999,-6.46100
44.70000,-4.46999,-6.47515
44.80000,-4.47986,-6.49323
44.90000,-4.48986,-6.52426
45.00000,-4.49972,-6.54430
45.10000,-4.50986,-6.56191
45.20000,-4.51972,-6.59571
45.30000,-4.52999,-6.62598
45.40000,-4.54012,-6.65941
45.50000,-4.54986,-6.67962
45.60000,-4.56012,-6.71749
45.70000,-4.56999,-6.73713
45.80000,-4.57986,-6.77851
45.90000,-4.59039,-6.80616
46.00000,-4.59999,-6.83113
46.10000,-4.60986,-6.85576
46.20000,-4.61999,-6.87854
46.30000,-4.62972,-6.89621
46.40000,-4.63986,-6.91775
46.50000,-4.64999,-6.93373
46.60000,-4.65986,-5.74474
46.70000,-4.66986,-5.69396
46.80000,-4.67999,-5.73199
46.90000,-4.68999,-5.75982
47.00000,-4.69999,-5.79332
47.10000,-4.71012,-5.82983
47.20000,-4.71999,-5.87900
47.30000,-4.72972,-5.92596
47.40000,-4.74025,-5.97035
47.50000,-4.74986,-5.98572
47.60000,-4.75986,-6.02049
47.70000,-4.76999,-6.05784
47.80000,-4.77959,-6.08508
47.90000,-4.78999,-6.11985
48.00000,-4.80012,-6.08580
48.10000,-4.80986,-6.10836
48.20000,-4.81999,-6.14164
48.30000,-4.82999,-6.13848
48.40000,-4.83999,-6.13510
48.50000,-4.85012,-6.14707
48.60000,-4.85999,-6.15983
48.70000,-4.86999,-6.17146
48.80000,-4.87985,-6.18435
48.90000,-4.89012,-6.20447
49.00000,-4.89985,-6.22661
49.10000,-4.90985,-6.22999
49.20000,-4.92025,-6.21672
49.30000,-4.92972,-6.23361
49.40000,-4.93999,-6.25291
49.50000,-4.94999,-6.26381
49.60000,-4.95972,-6.29091
49.70000,-4.97012,-6.32067
49.80000,-4.98012,-6.31411
49.90000,-4.98999,-6.31929
50.00000,-4.99999,-6.33684
50.10000,-5.00972,-6.35358
50.20000,-5.01985,-6.38080
50.30000,-5.02985,-6.39543
50.40000,-5.03985,-6.42146
50.50000,-5.04985,-6.44199
50.60000,-5.05985,-6.45924
50.70000,-5.07012,-6.48226
50.80000,-5.07985,-6.40547
50.90000,-5.08999,-6.41700
51.00000,-5.10012,-6.43041
51.10000,-5.10972,-6.43890
51.20000,-5.12012,-6.47737
51.30000,-5.12999,-6.48625
51.40000,-5.13972,-6.51164
51.50000,-5.14999,-6.52258
51.60000,-5.15985,-6.52822
51.70000,-5.16972,-6.54608
51.80000,-5.17999,-6.55043
51.90000,-5.18985,-6.55432
52.00000,-5.19999,-6.52169
52.10000,-5.21012,-6.51919
52.20000,-5.22012,-6.53740
52.30000,-5.22999,-6.53567
52.40000,-5.23999,-6.54058
52.50000,-5.25012,-6.57229
52.60000,-5.25985,-6.58089
52.70000,-5.27012,-6.61312
52.80000,-5.27999,-6.58012
52.90000,-5.28972,-6.61368
53.00000,-5.30012,-6.61363
53.10000,-5.30972,-6.62612
53.20000,-5.31985,-6.65746
53.30000,-5.33025,-6.66043
53.40000,-5.33972,-6.67276
53.50000,-5.34999,-6.69204
53.60000,-5.36012,-6.70754
53.70000,-5.37012,-6.72545
53.80000,-5.37999,-6.73560
53.90000,-5.39012,-6.67431
54.00000,-5.40012,-6.69851
54.10000,-5.40985,-6.69188
54.20000,-5.42012,-6.72344
54.30000,-5.42985,-6.73254
54.40000,-5.43972,-6.72740
54.50000,-5.45025,-6.76261
54.60000,-5.45985,-6.79040
54.70000,-5.46999,-6.79542
54.80000,-5.48012,-6.80447
54.90000,-5.48985,-6.80794
55.00000,-5.50012,-6.82464
55.10000,-5.51012,-6.83669
55.20000,-5.51985,-6.84514
55.30000,-5.53012,-6.85232
55.40000,-5.53999,-6.83824
55.50000,-5.54985,-6.84497
55.60000,-5.55985,-6.85537
55.70000,-5.56972,-6.88396
55.80000,-5.57999,-6.62209
55.90000,-5.58985,-6.60003
56.00000,-5.59999,-6.60235
56.10000,-5.60999,-6.60890
56.20000,-5.61972,-6.62481
56.30000,-5.63025,-6.54979
56.40000,-5.63985,-6.54663
56.50000,-5.64999,-6.55609
56.60000,-5.66012,-6.56748
56.70000,-5.66959,-6.58215
56.80000,-5.67999,-6.60752
56.90000,-5.68999,-6.61569
57.00000,-5.69972,-6.62376
57.10000,-5.70985,-6.62196
57.20000,-5.71985,-6.64611
57.30000,-5.72985,-6.66773
57.40000,-5.73999,-6.68676
57.50000,-5.75012,-6.69518
57.60000,-5.76012,-6.71363
57.70000,-5.76999,-6.72874
57.80000,-5.78025,-6.74439
57.90000,-5.78999,-6.75734
58.00000,-5.79999,-6.78032
58.10000,-5.80999,-6.79787
58.20000,-5.81972,-6.81450
58.30000,-5.82985,-6.80872
58.40000,-5.83999,-6.83482
58.50000,-5.84972,-6.85600
58.60000,-5.86012,-6.86668
58.70000,-5.87012,-6.87898
58.80000,-5.87999,-6.90762
58.90000,-5.89025,-6.92294
59.00000,-5.89999,-6.91396
59.10000,-5.91012,-6.93409
59.20000,-5.92012,-6.94490
59.30000,-5.93012,-6.95620
59.40000,-5.93985,-6.94228
59.50000,-5.94985,-6.95597
59.60000,-5.95999,-6.97549
59.70000,-5.96972,-6.98834
59.80000,-5.98012,-6.98574
59.90000,-5.98985,-6.99740
60.00000,-5.99959,-7.02364
60.10000,-6.01025,-7.03491
60.20000,-6.01999,-7.06464
60.30000,-6.02985,-7.06516
60.40000,-6.03999,-7.07678
60.50000,-6.04985,-7.08931
60.60000,-6.05999,-7.07041
60.70000,-6.06999,-7.03097
60.80000,-6.07985,-7.05097
60.90000,-6.08972,-7.05292
61.00000,-6.09972,-7.03960
61.10000,-6.10985,-7.04621
61.20000,-6.11985,-7.04950
61.30000,-6.12999,-7.07219
61.40000,-6.14012,-7.09079
61.50000,-6.14985,-7.10713
61.60000,-6.16012,-7.12008
61.70000,-6.16999,-7.13792
61.80000,-6.17985,-7.16546
61.90000,-6.19025,-7.16792
62.00000,-6.19998,-7.18822
62.10000,-6.20985,-7.20032
62.20000,-6.21998,-7.08194
62.30000,-6.22959,-7.06414
62.40000,-6.23985,-7.10291
62.50000,-6.24998,-7.10645
62.60000,-6.25985,-7.09659
62.70000,-6.26998,-7.09435
62.80000,-6.27998,-7.11835
62.90000,-6.29012,-7.08762
63.00000,-6.30012,-7.09479
63.10000,-6.31025,-7.11721
63.20000,-6.31998,-7.13743
63.30000,-6.32958,-7.11774
63.40000,-6.34025,-7.14164
63.50000,-6.34998,-7.14259
63.60000,-6.35985,-7.16056
63.70000,-6.36998,-7.17429
63.80000,-6.37972,-7.18843
63.90000,-6.38998,-7.17118
64.00000,-6.40025,-7.15610
64.10001,-6.40998,-7.16444
64.20000,-6.41998,-7.15745
64.30000,-6.42998,-7.16940
64.40000,-6.43998,-7.18785
64.50000,-6.45012,-7.20368
64.60001,-6.45998,-7.22476
64.70000,-6.46998,-7.20785
64.80000,-6.47985,-7.22056
64.90000,-6.49012,-7.23969
65.00000,-6.49985,-7.24512
65.10001,-6.50972,-7.25959
65.20000,-6.52012,-7.27616
65.30000,-6.52985,-7.28370
65.40000,-6.54012,-7.25331
65.50000,-6.54998,-7.23838
65.60001,-6.55972,-7.26559
65.70001,-6.57012,-7.29366
65.80000,-6.58012,-7.32076
65.90000,-6.58998,-7.32281
66.00000,-6.59998,-7.33310
66.10001,-6.60985,-7.34319
66.20001,-6.61998,-7.36771
66.30000,-6.62985,-7.35111
66.40000,-6.63985,-7.33831
66.50000,-6.64985,-7.33351
66.60001,-6.65972,-7.23988
66.70001,-6.67012,-7.13882
66.80000,-6.67985,-7.14845
66.90000,-6.68998,-7.16730
67.00000,-6.70012,-7.18802
67.10001,-6.70972,-7.19831
67.20001,-6.72012,-7.21306
67.30000,-6.72998,-7.22470
67.40000,-6.73972,-7.24231
67.50000,-6.74998,-7.23029
67.60001,-6.75985,-7.24872
67.70001,-6.76985,-7.22464
67.80000,-6.77998,-7.20598
67.90000,-6.78985,-7.20540
68.00000,-6.79998,-7.21240
68.10001,-6.80998,-7.23317
68.20001,-6.82012,-7.13238
68.30000,-6.82998,-7.02672
68.40000,-6.84012,-7.04689
68.50000,-6.85012,-7.05365
68.60001,-6.85985,-7.06412
68.70001,-6.86998,-7.06020
68.80000,-6.87985,-7.05923
68.90000,-6.88958,-7.07424
69.00000,-6.90012,-7.07728
69.10001,-6.90985,-7.04693
69.20001,-6.91985,-6.97944
69.30000,-6.93012,-6.98547
69.40000,-6.93985,-6.99416
69.50000,-6.94998,-6.99353
69.60001,-6.96012,-6.96350
69.70001,-6.96998,-6.95559
69.80000,-6.97998,-6.96663
69.90000,-6.98985,-6.94773
70.00000,-6.99998,-6.75041
70.10001,-7.00985,-6.64442
70.20001,-7.02025,-6.63083
70.30000,-7.02985,-6.62445
70.40000,-7.03972,-6.62337
70.50000,-7.05025,-6.60633
70.60001,-7.05985,-6.62446
70.70001,-7.06985,-6.60718
70.80000,-7.08025,-6.65586
70.90000,-7.08985,-6.64088
71.00000,-7.10012,-6.64885
71.10001,-7.11025,-6.63871
71.20001,-7.11972,-6.64948
71.30000,-7.12998,-6.66197
71.40000,-7.13998,-6.68514
71.50000,-7.14985,-6.70588
