Time,Extension,Load
(sec),(mm),(N)
0.00000,0.00000,-0.00098
0.10000,-0.00213,-0.00048
0.20000,-0.01493,-0.00165
0.30000,-0.02747,-0.00277
0.40000,-0.03880,-0.00336
0.50000,-0.04907,-0.00437
0.60000,-0.05973,-0.00554
0.70000,-0.06973,-0.00614
0.80000,-0.07987,-0.00693
0.90000,-0.09013,-0.00789
1.00000,-0.09973,-0.00957
1.10000,-0.11000,-0.01133
1.20000,-0.12000,-0.01195
1.30000,-0.12973,-0.01227
1.40000,-0.13987,-0.01381
1.50000,-0.14987,-0.01457
1.60000,-0.16000,-0.01787
1.70000,-0.17013,-0.01935
1.80000,-0.18013,-0.02025
1.90000,-0.19000,-0.02193
2.00000,-0.20000,-0.02219
2.10000,-0.21013,-0.02385
2.20000,-0.22000,-0.02536
2.30000,-0.22987,-0.02714
2.40000,-0.24013,-0.02838
2.50000,-0.24987,-0.03061
2.60000,-0.25987,-0.03234
2.70000,-0.27000,-0.03418
2.80000,-0.27973,-0.03525
2.90000,-0.29013,-0.03599
3.00000,-0.30013,-0.03734
3.10000,-0.30987,-0.03844
3.20000,-0.32013,-0.04171
3.30000,-0.33000,-0.04273
3.40000,-0.34013,-0.04446
3.50000,-0.35000,-0.04576
3.60000,-0.36013,-0.04623
3.70000,-0.36987,-0.04722
3.80000,-0.37973,-0.04956
3.90000,-0.39013,-0.05013
4.00000,-0.39973,-0.05249
4.10000,-0.41000,-0.05392
4.20000,-0.42000,-0.05534
4.30000,-0.42973,-0.05749
4.40000,-0.44027,-0.05949
4.50000,-0.45000,-0.06220
4.60000,-0.45987,-0.06379
4.70000,-0.47000,-0.06686
4.80000,-0.47987,-0.06810
4.90000,-0.49000,-0.07090
5.00000,-0.50000,-0.07285
5.10000,-0.50973,-0.07448
5.20000,-0.51987,-0.07691
5.30000,-0.52987,-0.07932
5.40000,-0.53987,-0.08057
5.50000,-0.54987,-0.08204
5.60000,-0.55987,-0.08385
5.70000,-0.57013,-0.08562
5.80000,-0.57973,-0.08724
5.90000,-0.59013,-0.08884
6.00000,-0.60013,-0.08851
6.10000,-0.60973,-0.09094
6.20000,-0.62013,-0.09343
6.30000,-0.62987,-0.09382
6.40000,-0.63987,-0.09396
6.50000,-0.65000,-0.09620
6.60000,-0.65973,-0.09683
6.70000,-0.66987,-0.09916
6.80000,-0.68000,-0.10101
6.90000,-0.69000,-0.10316
7.00000,-0.70000,-0.10534
7.10000,-0.70986,-0.10712
7.20000,-0.72000,-0.10772
7.30000,-0.72986,-0.11055
7.40000,-0.74026,-0.11194
7.50000,-0.75000,-0.11413
7.60000,-0.75973,-0.11503
7.70000,-0.77013,-0.11769
7.80000,-0.77986,-0.11956
7.90000,-0.78973,-0.12114
8.00000,-0.80000,-0.12415
8.10000,-0.80973,-0.12521
8.20000,-0.82000,-0.12865
8.30000,-0.83026,-0.13096
8.40000,-0.83986,-0.13235
8.50000,-0.84986,-0.13525
8.60000,-0.86000,-0.13906
8.70000,-0.87013,-0.14162
8.80000,-0.88000,-0.14560
8.90000,-0.89000,-0.14734
9.00000,-0.90000,-0.15034
9.10000,-0.90986,-0.15218
9.20000,-0.92026,-0.15548
9.30000,-0.92986,-0.15972
9.40000,-0.93960,-0.16317
9.50000,-0.95026,-0.16703
9.60000,-0.95973,-0.17137
9.70000,-0.97000,-0.17614
9.80000,-0.98013,-0.17831
9.90000,-0.98973,-0.18250
10.00000,-1.00013,-0.18676
10.10000,-1.01000,-0.19235
10.20000,-1.02000,-0.19721
10.30000,-1.03000,-0.20143
10.40000,-1.03973,-0.20510
10.50000,-1.05000,-0.20947
10.60000,-1.06000,-0.21315
10.70000,-1.07000,-0.21752
10.80000,-1.08000,-0.22369
10.90000,-1.08986,-0.23041
11.00000,-1.10013,-0.23507
11.10000,-1.10986,-0.23882
11.20000,-1.12000,-0.24331
11.30000,-1.13013,-0.24711
11.40000,-1.13986,-0.25247
11.50000,-1.15013,-0.25780
11.60000,-1.16013,-0.26324
11.70000,-1.16986,-0.26938
11.80000,-1.18013,-0.27355
11.90000,-1.18986,-0.27716
12.00000,-1.19973,-0.28266
12.10000,-1.20986,-0.28905
12.20000,-1.21986,-0.29495
12.30000,-1.22986,-0.30096
12.40000,-1.24000,-0.30748
12.50000,-1.25013,-0.31459
12.60000,-1.26013,-0.31803
12.70000,-1.27013,-0.32460
12.80000,-1.28026,-0.32877
12.90000,-1.28986,-0.33837
13.00000,-1.30013,-0.34568
13.10000,-1.31000,-0.35481
13.20000,-1.31960,-0.36207
13.30000,-1.33000,-0.37034
13.40000,-1.33973,-0.37701
13.50000,-1.34973,-0.38535
13.60000,-1.36013,-0.39220
13.70000,-1.36986,-0.40238
13.80000,-1.38000,-0.41272
13.90000,-1.39013,-0.42367
14.00000,-1.40013,-0.43240
14.10000,-1.41000,-0.44283
14.20000,-1.42013,-0.45132
14.30000,-1.43013,-0.45879
14.40000,-1.43973,-0.46867
14.50000,-1.45000,-0.47938
14.60000,-1.46000,-0.49240
14.70000,-1.46973,-0.50384
14.80000,-1.48026,-0.51594
14.90000,-1.48986,-0.52769
15.00000,-1.49986,-0.53934
15.10000,-1.51026,-0.55308
15.20000,-1.52000,-0.56804
15.30000,-1.53000,-0.58593
15.40000,-1.54013,-0.60301
15.50000,-1.54986,-0.61847
15.60000,-1.56000,-0.63534
15.70000,-1.57000,-0.65185
15.80000,-1.57986,-0.66877
15.90000,-1.58973,-0.68866
16.00000,-1.59960,-0.71058
16.10000,-1.60986,-0.72995
16.20000,-1.61973,-0.74920
16.30000,-1.63013,-0.77274
16.40000,-1.64000,-0.79160
16.50000,-1.64973,-0.80934
16.60000,-1.66026,-0.83319
16.70000,-1.66986,-0.85315
16.80000,-1.68000,-0.87283
16.90000,-1.69026,-0.89843
17.00000,-1.69973,-0.91675
17.10000,-1.70986,-0.93758
17.20000,-1.72000,-0.96048
17.30000,-1.72986,-0.98027
17.40000,-1.73986,-1.00062
17.50000,-1.74986,-1.02475
17.60000,-1.76000,-1.04719
17.70000,-1.77000,-1.06960
17.80000,-1.78000,-1.09647
17.90000,-1.79000,-1.12022
18.00000,-1.80000,-1.14377
18.10000,-1.81013,-1.16979
18.20000,-1.82000,-1.19312
18.30000,-1.82986,-1.21860
18.40000,-1.84013,-1.24868
18.50000,-1.84986,-1.27477
18.60000,-1.85973,-1.29960
18.70000,-1.87000,-1.32907
18.80000,-1.87973,-1.35539
18.90000,-1.89013,-1.38538
19.00000,-1.90000,-1.41888
19.10000,-1.90986,-1.44737
19.20000,-1.92000,-1.47749
19.30000,-1.93000,-1.51171
19.40000,-1.94013,-1.54086
19.50000,-1.94986,-1.57112
19.60000,-1.96000,-1.60389
19.70000,-1.96973,-1.63555
19.80000,-1.97973,-1.66777
19.90000,-1.99013,-1.70542
20.00000,-1.99973,-1.73592
20.10000,-2.01013,-1.76722
20.20000,-2.02000,-1.80536
20.30000,-2.02973,-1.83686
20.40000,-2.04026,-1.87304
20.50000,-2.05000,-1.90909
20.60000,-2.05986,-1.94456
20.70000,-2.07013,-1.97992
20.80000,-2.07999,-2.01302
20.90000,-2.08999,-2.04964
21.00000,-2.09986,-2.08142
21.10000,-2.10973,-2.11843
21.20000,-2.11986,-2.15466
21.30000,-2.12986,-2.19189
21.40000,-2.13986,-2.22775
21.50000,-2.14973,-2.26279
21.60000,-2.15986,-2.29813
21.70000,-2.17013,-2.33731
21.80000,-2.17986,-2.37286
21.90000,-2.19013,-2.41052
22.00000,-2.19999,-2.44894
22.10000,-2.20973,-2.48483
22.20000,-2.22026,-2.52374
22.30000,-2.22986,-2.56150
22.40000,-2.23986,-2.59855
22.50000,-2.24999,-2.63642
22.60000,-2.25959,-2.67469
22.70000,-2.26973,-2.71067
22.80000,-2.27999,-2.74869
22.90000,-2.28999,-2.78687
23.00000,-2.29986,-2.82560
23.10000,-2.30999,-2.86189
23.20000,-2.32013,-2.89663
23.30000,-2.33013,-2.92764
23.40000,-2.34026,-2.95826
23.50000,-2.34999,-2.98779
23.60000,-2.35959,-3.02117
23.70000,-2.37013,-3.04815
23.80000,-2.37999,-3.07631
23.90000,-2.38986,-3.09879
24.00000,-2.39999,-3.12483
24.10000,-2.40986,-3.14689
24.20000,-2.41999,-3.17173
24.30000,-2.43013,-3.19430
24.40000,-2.43986,-3.21574
24.50000,-2.44999,-3.23854
24.60000,-2.45999,-3.26242
24.70000,-2.46999,-3.28432
24.80000,-2.47999,-3.30861
24.90000,-2.48999,-3.33063
25.00000,-2.49999,-3.35395
25.10000,-2.50973,-3.37703
25.20000,-2.52026,-3.40248
25.30000,-2.52986,-3.42775
25.40000,-2.53959,-3.44669
25.50000,-2.55026,-3.47217
25.60000,-2.55986,-3.49687
25.70000,-2.57013,-3.51968
25.80000,-2.58013,-3.54671
25.90000,-2.58973,-3.56948
26.00000,-2.60013,-3.59443
26.10000,-2.60999,-3.62144
26.20000,-2.61986,-3.64609
26.30000,-2.62986,-3.67889
26.40000,-2.63973,-3.70875
26.50000,-2.64986,-3.74040
26.60000,-2.65986,-3.77362
26.70000,-2.66986,-3.80844
26.80000,-2.67999,-3.84828
26.90000,-2.68973,-3.88137
27.00000,-2.70013,-3.91884
27.10000,-2.70973,-3.95517
27.20000,-2.71986,-3.99316
27.30000,-2.73013,-4.03423
27.40000,-2.73973,-4.07359
27.50000,-2.74999,-4.10879
27.60000,-2.76013,-4.14899
27.70000,-2.76973,-4.18705
27.80000,-2.77999,-4.22878
27.90000,-2.78986,-4.26976
28.00000,-2.79986,-4.30797
28.10000,-2.80986,-4.34669
28.20000,-2.81986,-4.38496
28.30000,-2.82999,-4.42436
28.40000,-2.84013,-4.46210
28.50000,-2.85013,-4.50136
28.60000,-2.85999,-4.53792
28.70000,-2.86999,-4.57405
28.80000,-2.88013,-4.61452
28.90000,-2.88986,-4.65206
29.00000,-2.90013,-4.68883
29.10000,-2.90999,-4.72462
29.20000,-2.91973,-4.75908
29.30000,-2.92999,-4.79622
29.40000,-2.93973,-4.83407
29.50000,-2.94986,-4.87003
29.60000,-2.96013,-4.90913
29.70000,-2.96986,-4.94488
29.80000,-2.98013,-4.97984
29.90000,-2.99026,-5.01707
30.00000,-3.00013,-5.05041
30.10000,-3.00999,-5.08480
30.20000,-3.01999,-5.11998
30.30000,-3.02999,-5.15395
30.40000,-3.03986,-5.18864
30.50000,-3.05013,-5.22488
30.60000,-3.05986,-5.26169
30.70000,-3.06973,-5.29684
30.80000,-3.08026,-5.33517
30.90000,-3.08986,-5.36958
31.00000,-3.09986,-5.40447
31.10000,-3.11026,-5.44237
31.20000,-3.11986,-5.47842
31.30000,-3.12986,-5.51378
31.40000,-3.14013,-5.54860
31.50000,-3.14986,-5.58139
31.60000,-3.15999,-5.61864
31.70000,-3.16999,-5.65115
31.80000,-3.17986,-5.68538
31.90000,-3.18986,-5.72149
32.00000,-3.19986,-5.75617
32.10000,-3.20986,-5.78982
32.20000,-3.21973,-5.81931
32.30000,-3.23013,-5.85282
32.40000,-3.23999,-5.88649
32.50000,-3.24973,-5.91671
32.60000,-3.26026,-5.95078
32.70000,-3.26986,-5.98433
32.80000,-3.27986,-6.01434
32.90000,-3.29013,-6.05043
33.00000,-3.29959,-6.08113
33.10000,-3.30999,-6.11318
33.20000,-3.32013,-6.14370
33.30000,-3.32986,-6.17078
33.40000,-3.33999,-6.20413
33.50000,-3.34986,-6.23469
33.60000,-3.35999,-6.26389
33.70000,-3.36999,-6.29599
33.80000,-3.38013,-6.32739
33.90000,-3.38999,-6.35708
34.00000,-3.39999,-6.38783
34.10000,-3.41026,-6.41670
34.20000,-3.41986,-6.44631
34.30000,-3.42973,-6.47561
34.40000,-3.43999,-6.50862
34.50000,-3.44972,-6.53725
34.60000,-3.45986,-6.56664
34.70000,-3.46999,-6.59772
34.80000,-3.47972,-6.62593
34.90000,-3.49012,-6.66087
35.00000,-3.50026,-6.69220
35.10000,-3.51012,-6.72303
35.20000,-3.52012,-6.75318
35.30000,-3.52986,-6.78457
35.40000,-3.54012,-6.81635
35.50000,-3.54999,-6.84715
35.60000,-3.56012,-6.87944
35.70000,-3.56972,-6.91128
35.80000,-3.57972,-6.94184
35.90000,-3.59012,-6.97807
36.00000,-3.59972,-7.01044
36.10000,-3.60999,-7.04324
36.20000,-3.61999,-7.07560
36.30000,-3.62959,-7.10452
36.40000,-3.64026,-7.13699
36.50000,-3.64999,-7.16740
36.60000,-3.65986,-7.19699
36.70000,-3.67012,-7.23306
36.80000,-3.67986,-7.27289
36.90000,-3.68986,-7.31231
37.00000,-3.69986,-7.34931
37.10000,-3.70986,-7.38263
37.20000,-3.71986,-7.41535
37.30000,-3.72972,-7.44711
37.40000,-3.73986,-7.47843
37.50000,-3.74986,-7.51226
37.60000,-3.75986,-7.54362
37.70000,-3.77012,-7.57693
37.80000,-3.77986,-7.60608
37.90000,-3.79012,-7.63746
38.00000,-3.80012,-7.66974
38.10000,-3.80972,-7.69788
38.20000,-3.82026,-7.72928
38.30000,-3.82986,-7.75918
38.40000,-3.83986,-7.78738
38.50000,-3.85012,-7.81883
38.60000,-3.85972,-7.84717
38.70000,-3.86986,-7.87514
38.80000,-3.87999,-7.90384
38.90000,-3.88999,-7.93112
39.00000,-3.89999,-7.95784
39.10000,-3.90999,-7.98520
39.20000,-3.92012,-8.01466
39.30000,-3.92999,-8.04250
39.40000,-3.94026,-8.06854
39.50000,-3.94999,-8.09358
39.60000,-3.95972,-8.11617
39.70000,-3.97012,-8.14065
39.80000,-3.97986,-8.16370
39.90000,-3.98972,-8.18558
40.00000,-3.99999,-8.21123
40.10000,-4.00972,-8.23479
40.20000,-4.01999,-8.25886
40.30000,-4.03012,-8.28230
40.40000,-4.03999,-8.30498
40.50000,-4.04999,-8.32956
40.60000,-4.06012,-8.35264
40.70000,-4.07012,-8.37622
40.80000,-4.07999,-8.39880
40.90000,-4.08999,-8.42114
41.00000,-4.09986,-8.44486
41.10000,-4.10972,-8.46555
41.20000,-4.12026,-8.49278
41.30000,-4.12999,-8.51681
41.40000,-4.13959,-8.53860
41.50000,-4.15026,-8.56517
41.60000,-4.15986,-8.58865
41.70000,-4.17012,-8.61281
41.80000,-4.18026,-8.63650
41.90000,-4.18972,-8.65978
42.00000,-4.20012,-8.68470
42.10000,-4.21012,-8.70795
42.20000,-4.21999,-8.73171
42.30000,-4.22986,-8.75696
42.40000,-4.23972,-8.78121
42.50000,-4.24986,-8.80737
42.60000,-4.25986,-8.83159
42.70000,-4.26986,-8.85630
42.80000,-4.27972,-8.88176
42.90000,-4.28959,-8.90624
43.00000,-4.30026,-8.93232
43.10000,-4.30999,-8.95945
43.20000,-4.31986,-8.98096
43.30000,-4.33026,-9.00784
43.40000,-4.33972,-9.03093
43.50000,-4.34986,-9.05423
43.60000,-4.35999,-9.08156
43.70000,-4.36972,-9.10410
43.80000,-4.37999,-9.12949
43.90000,-4.38999,-9.15454
44.00000,-4.39986,-9.17852
44.10000,-4.40986,-9.20274
44.20000,-4.41999,-9.22902
44.30000,-4.43012,-9.25547
44.40000,-4.44012,-9.27961
44.50000,-4.45026,-9.30544
44.60000,-4.45999,-9.32973
44.70000,-4.46999,-9.35537
44.80000,-4.48026,-9.38110
44.90000,-4.48986,-9.40574
45.00000,-4.49999,-9.42981
45.10000,-4.51012,-9.45624
45.20000,-4.51959,-9.48156
45.30000,-4.53012,-9.50708
45.40000,-4.53986,-9.53229
45.50000,-4.54972,-9.55613
45.60000,-4.56012,-9.58257
45.70000,-4.56986,-9.60874
45.80000,-4.57999,-9.63357
45.90000,-4.59012,-9.65893
46.00000,-4.60012,-9.68289
46.10000,-4.60999,-9.70861
46.20000,-4.61999,-9.73274
46.30000,-4.63012,-9.75771
46.40000,-4.63972,-9.77996
46.50000,-4.64999,-9.80540
46.60000,-4.65999,-9.83322
46.70000,-4.66972,-9.85730
46.80000,-4.68012,-9.88276
46.90000,-4.68986,-9.90816
47.00000,-4.69986,-9.93216
47.10000,-4.71026,-9.95985
47.20000,-4.71999,-9.98484
47.30000,-4.72999,-10.00974
47.40000,-4.74012,-10.03573
47.50000,-4.74986,-10.06069
47.60000,-4.75999,-10.08762
47.70000,-4.76986,-10.11206
47.80000,-4.77986,-10.13602
47.90000,-4.78985,-10.16264
48.00000,-4.79972,-10.18747
48.10000,-4.80986,-10.21394
48.20000,-4.81972,-10.23582
48.30000,-4.82999,-10.26125
48.40000,-4.83999,-10.28848
48.50000,-4.84972,-10.31151
48.60000,-4.86025,-10.33773
48.70000,-4.86986,-10.36290
48.80000,-4.87985,-10.38544
48.90000,-4.89012,-10.41148
49.00000,-4.89972,-10.43434
49.10000,-4.90985,-10.45926
49.20000,-4.91999,-10.48403
49.30000,-4.92985,-10.50735
49.40000,-4.93985,-10.53271
49.50000,-4.94985,-10.55802
49.60000,-4.95999,-10.58331
49.70000,-4.96999,-10.60956
49.80000,-4.98012,-10.63368
49.90000,-4.98999,-10.65956
50.00000,-4.99985,-10.68333
50.10000,-5.01012,-10.70866
50.20000,-5.01999,-10.73307
50.30000,-5.02972,-10.75576
50.40000,-5.04012,-10.78221
50.50000,-5.04972,-10.80549
50.60000,-5.05985,-10.82951
50.70000,-5.06999,-10.85614
50.80000,-5.07972,-10.87939
50.90000,-5.09025,-10.90766
51.00000,-5.10012,-10.93176
51.10000,-5.10999,-10.95674
51.20000,-5.12012,-10.98079
51.30000,-5.12999,-11.00381
51.40000,-5.14012,-11.02906
51.50000,-5.15012,-11.05519
51.60000,-5.16025,-11.07945
51.70000,-5.16985,-11.10345
51.80000,-5.17972,-11.12574
51.90000,-5.19012,-11.15283
52.00000,-5.19972,-11.17419
52.10000,-5.20999,-11.19649
52.20000,-5.21999,-11.22350
52.30000,-5.22972,-11.24590
52.40000,-5.24025,-11.27101
52.50000,-5.24999,-11.29334
52.60000,-5.25985,-11.31572
52.70000,-5.26999,-11.34244
52.80000,-5.27985,-11.36631
52.90000,-5.28999,-11.39167
53.00000,-5.29999,-11.41530
53.10000,-5.30985,-11.43745
53.20000,-5.31985,-11.46274
53.30000,-5.32972,-11.48556
53.40000,-5.33985,-11.51055
53.50000,-5.34985,-11.53475
53.60000,-5.35972,-11.55795
53.70000,-5.37012,-11.58395
53.80000,-5.37985,-11.60639
53.90000,-5.38999,-11.62998
54.00000,-5.40025,-11.65433
54.10000,-5.40972,-11.67674
54.20000,-5.42012,-11.70163
54.30000,-5.42985,-11.72567
54.40000,-5.43972,-11.74875
54.50000,-5.44985,-11.77358
54.60000,-5.45972,-11.79779
54.70000,-5.46985,-11.82251
54.80000,-5.47999,-11.84650
54.90000,-5.49012,-11.87037
55.00000,-5.49999,-11.89429
55.10000,-5.50999,-11.91675
55.20000,-5.52025,-11.94133
55.30000,-5.52999,-11.96469
55.40000,-5.54012,-11.98835
55.50000,-5.54999,-12.01350
55.60000,-5.55959,-12.03569
55.70000,-5.56999,-12.06037
55.80000,-5.57985,-12.08455
55.90000,-5.58972,-12.10801
56.00000,-5.59999,-12.13437
56.10000,-5.60972,-12.15715
56.20000,-5.61999,-12.18195
56.30000,-5.63025,-12.20745
56.40000,-5.63999,-12.23115
56.50000,-5.64999,-12.25562
56.60000,-5.66012,-12.28021
56.70000,-5.66999,-12.30574
56.80000,-5.67999,-12.32878
56.90000,-5.68999,-12.35114
57.00000,-5.69999,-12.37584
57.10000,-5.70972,-12.39802
57.20000,-5.72012,-12.42359
57.30000,-5.72985,-12.44702
57.40000,-5.73972,-12.46841
57.50000,-5.75025,-12.49542
57.60000,-5.75985,-12.51662
57.70000,-5.77012,-12.53998
57.80000,-5.78012,-12.56560
57.90000,-5.78985,-12.58993
58.00000,-5.80025,-12.61558
58.10000,-5.80999,-12.63895
58.20000,-5.81999,-12.66208
58.30000,-5.82985,-12.68686
58.40000,-5.83985,-12.71112
58.50000,-5.84999,-12.73549
58.60000,-5.85985,-12.75909
58.70000,-5.86985,-12.78292
58.80000,-5.87985,-12.80866
58.90000,-5.88972,-12.83130
59.00000,-5.89999,-12.85848
59.10000,-5.90985,-12.88353
59.20000,-5.91999,-12.90721
59.30000,-5.93012,-12.93425
59.40000,-5.93985,-12.95768
59.50000,-5.94999,-12.98027
59.60000,-5.95999,-13.00434
59.70000,-5.96959,-13.02622
59.80000,-5.97999,-13.05189
59.90000,-5.98985,-13.07651
60.00000,-5.99972,-13.10033
60.10000,-6.00985,-13.12543
60.20000,-6.01985,-13.15112
60.30000,-6.02999,-13.17648
60.40000,-6.04012,-13.19995
60.50000,-6.05012,-13.22334
60.60000,-6.05999,-13.24628
60.70000,-6.06999,-13.26894
60.80000,-6.08012,-13.29099
60.90000,-6.08972,-13.31239
61.00000,-6.09998,-13.33699
61.10000,-6.10999,-13.36238
61.20000,-6.11972,-13.38406
61.30000,-6.13025,-13.40969
61.40000,-6.13985,-13.43276
61.50000,-6.14985,-13.45642
61.60000,-6.16012,-13.48201
61.70000,-6.16985,-13.50413
61.80000,-6.17999,-13.52416
61.90000,-6.19012,-13.54418
62.00000,-6.19998,-13.56307
62.10000,-6.20998,-13.58596
62.20000,-6.21998,-13.60718
62.30000,-6.23012,-13.62869
62.40000,-6.23985,-13.64870
62.50000,-6.25012,-13.66912
62.60000,-6.25985,-13.69264
62.70000,-6.26958,-13.71311
62.80000,-6.27998,-13.73742
62.90000,-6.28985,-13.76054
63.00000,-6.29985,-13.78180
63.10000,-6.31025,-13.80582
63.20000,-6.31998,-13.82566
63.30000,-6.32998,-13.84699
63.40000,-6.34012,-13.86850
63.50000,-6.34985,-13.88966
63.60000,-6.35998,-13.91487
63.70000,-6.36998,-13.93682
63.80000,-6.37985,-13.96071
63.90000,-6.38985,-13.98571
64.00000,-6.39958,-14.00964
64.10001,-6.40985,-14.03676
64.20000,-6.41972,-14.06190
64.30000,-6.42998,-14.08769
64.40000,-6.43998,-14.11614
64.50000,-6.44972,-14.13754
64.60001,-6.46025,-14.16296
64.70000,-6.46985,-14.18528
64.80000,-6.47998,-14.20382
64.90000,-6.49012,-14.22927
65.00000,-6.49958,-14.25406
65.10001,-6.50998,-14.28180
65.20000,-6.52012,-14.30945
65.30000,-6.52985,-14.33191
65.40000,-6.53985,-14.35869
65.50000,-6.54985,-14.38325
65.60001,-6.55998,-14.40982
65.70001,-6.57012,-14.43425
65.80000,-6.58012,-14.45966
65.90000,-6.58998,-14.48825
66.00000,-6.59985,-14.51470
66.10001,-6.61012,-14.54222
66.20001,-6.62012,-14.57010
66.30000,-6.62985,-14.59498
66.40000,-6.64012,-14.62407
66.50000,-6.64972,-14.64948
66.60001,-6.65985,-14.67429
66.70001,-6.66998,-14.70381
66.80000,-6.67958,-14.73007
66.90000,-6.69012,-14.75961
67.00000,-6.70012,-14.78595
67.10001,-6.70998,-14.81219
67.20001,-6.72012,-14.83917
67.30000,-6.72998,-14.86575
67.40000,-6.74012,-14.89194
67.50000,-6.74998,-14.91760
67.60001,-6.75998,-14.94563
67.70001,-6.76972,-14.97108
67.80000,-6.77972,-14.99714
67.90000,-6.79012,-15.02773
68.00000,-6.79985,-15.05569
68.10001,-6.81012,-15.08396
68.20001,-6.81998,-15.11432
68.30000,-6.82972,-15.13831
68.40000,-6.84025,-15.16685
68.50000,-6.85012,-15.19255
68.60001,-6.85998,-15.21637
68.70001,-6.87012,-15.24416
68.80000,-6.87985,-15.26957
68.90000,-6.88985,-15.29743
69.00000,-6.89998,-15.32409
69.10001,-6.90985,-15.34983
69.20001,-6.91998,-15.38034
69.30000,-6.92985,-15.40855
69.40000,-6.93985,-15.43862
69.50000,-6.94972,-15.47060
69.60001,-6.95985,-15.49927
69.70001,-6.97012,-15.53548
69.80000,-6.97985,-15.56704
69.90000,-6.99012,-15.59895
70.00000,-6.99998,-15.63166
70.10001,-7.00958,-15.66165
70.20001,-7.02025,-15.69663
70.30000,-7.02985,-15.73067
70.40000,-7.03985,-15.76247
70.50000,-7.04998,-15.79691
70.60001,-7.05958,-15.82901
70.70001,-7.06985,-15.86233
